TIME[ns],    Itot[uA],
0    -5.05136
0.0189043    -5.1498
0.0378086    -5.55255
0.056713    -6.57301
0.0756173    -6.41641
0.0945216    -7.57249
0.113426    -7.45896
0.13233    -7.6441
0.151235    -8.38896
0.170139    -9.28691
0.189043    -8.89276
0.207948    -9.62911
0.226852    -11.0026
0.245756    -9.31711
0.26466    -10.9441
0.283565    -11.0899
0.302469    -10.3623
0.321373    -12.5848
0.340278    -11.6255
0.359182    -12.0709
0.378086    -13.2078
0.396991    -12.8699
0.415895    -13.3618
0.434799    -14.1504
0.453704    -13.8927
0.472608    -14.3651
0.491512    -14.8487
0.510417    -14.2419
0.529321    -15.6987
0.548225    -16.5466
0.56713    -15.0854
0.586034    -16.2736
0.604938    -17.773
0.623843    -15.6799
0.642747    -16.127
0.661651    -18.1145
0.680556    -16.6904
0.69946    -18.8336
0.718364    -17.5863
0.737269    -19.6595
0.756173    -18.9848
0.775077    -19.2853
0.793981    -20.2968
0.812886    -19.7126
0.83179    -21.5997
0.850694    -19.9798
0.869599    -22.3536
0.888503    -21.2114
0.907407    -22.3561
0.926312    -23.1779
0.945216    -21.4973
0.96412    -23.3034
0.983025    -22.8986
1.00193    -24.0881
1.02083    -23.8877
1.03974    -24.8018
1.05864    -24.3739
1.07755    -24.7202
1.09645    -26.5372
1.11535    -24.509
1.13426    -27.0806
1.15316    -26.0377
1.17207    -26.8226
1.19097    -26.9776
1.20988    -26.9938
1.22878    -27.1479
1.24769    -26.8208
1.26659    -28.4697
1.28549    -27.946
1.3044    -29.5843
1.3233    -28.6922
1.34221    -30.2318
1.36111    -29.3026
1.38002    -29.6839
1.39892    -30.1778
1.41782    -29.8877
1.43673    -31.6898
1.45563    -31.2037
1.47454    -31.9232
1.49344    -32.4462
1.51235    -31.7721
1.53125    -33.1112
1.55015    -33.0393
1.56906    -33.9786
1.58796    -34.2597
1.60687    -34.059
1.62577    -34.8219
1.64468    -34.4025
1.66358    -35.7801
1.68248    -35.3612
1.70139    -36.6578
1.72029    -35.5679
1.7392    -37.7969
1.7581    -36.8502
1.77701    -36.0342
1.79591    -38.2125
1.81481    -37.3703
1.83372    -37.7154
1.85262    -38.8371
1.87153    -39.0703
1.89043    -38.1605
1.90934    -39.4042
1.92824    -40.4264
1.94715    -37.8142
1.96605    -41.2628
1.98495    -39.9379
2.00386    -41.6016
2.02276    -40.7036
2.04167    -42.5336
2.06057    -42.3762
2.07948    -42.0723
2.09838    -43.7163
2.11728    -40.6402
2.13619    -44.8767
2.15509    -42.6715
2.174    -44.5503
2.1929    -44.0026
2.21181    -45.236
2.23071    -44.6129
2.24961    -45.0537
2.26852    -46.3362
2.28742    -45.7489
2.30633    -47.2302
2.32523    -46.7304
2.34414    -47.5425
2.36304    -48.0362
2.38194    -46.2326
2.40085    -49.8772
2.41975    -47.5244
2.43866    -48.7288
2.45756    -49.4818
2.47647    -49.3372
2.49537    -48.8355
2.51427    -48.9515
2.53318    -50.1777
2.55208    -49.5896
2.57099    -51.2831
2.58989    -50.3136
2.6088    -52.0469
2.6277    -50.9924
2.6466    -53.2338
2.66551    -52.3562
2.68441    -52.351
2.70332    -54.6107
2.72222    -52.3544
2.74113    -54.8862
2.76003    -52.3991
2.77894    -54.549
2.79784    -53.9513
2.81674    -53.5858
2.83565    -54.599
2.85455    -53.3238
2.87346    -53.9484
2.89236    -53.9058
2.91127    -53.933
2.93017    -54.7076
2.94907    -53.3054
2.96798    -55.4682
2.98688    -52.2786
3.00579    -54.859
3.02469    -52.986
3.0436    -54.1753
3.0625    -54.8891
3.0814    -52.7785
3.10031    -54.2977
3.11921    -53.5409
3.13812    -54.3075
3.15702    -53.778
3.17593    -54.641
3.19483    -53.3562
3.21373    -54.7738
3.23264    -54.4392
3.25154    -53.5636
3.27045    -54.1406
3.28935    -55.2444
3.30826    -55.1339
3.32716    -54.9819
3.34606    -56.0782
3.36497    -54.6367
3.38387    -54.0974
3.40278    -55.7945
3.42168    -54.7625
3.44059    -55.4369
3.45949    -55.8076
3.4784    -54.7392
3.4973    -54.9441
3.5162    -54.9743
3.53511    -55.506
3.55401    -55.4649
3.57292    -56.0386
3.59182    -54.0097
3.61073    -56.5608
3.62963    -55.127
3.64853    -54.0482
3.66744    -55.8863
3.68634    -55.1354
3.70525    -55.6949
3.72415    -54.709
3.74306    -54.822
3.76196    -55.9859
3.78086    -55.5467
3.79977    -55.1613
3.81867    -55.8751
3.83758    -55.9184
3.85648    -54.7252
3.87539    -56.6664
3.89429    -55.9018
3.91319    -56.6427
3.9321    -56.0277
3.951    -57.5678
3.96991    -55.0902
3.98881    -55.4701
4.00772    -56.892
4.02662    -54.9857
4.04552    -57.3435
4.06443    -55.8382
4.08333    -54.5917
4.10224    -57.1064
4.12114    -55.4303
4.14005    -56.0938
4.15895    -57.4862
4.17785    -56.2395
4.19676    -55.9131
4.21566    -56.3948
4.23457    -55.7606
4.25347    -54.7488
4.27238    -57.3517
4.29128    -55.4614
4.31019    -57.8121
4.32909    -54.4089
4.34799    -56.3051
4.3669    -56.1422
4.3858    -56.5643
4.40471    -56.7675
4.42361    -57.7251
4.44252    -57.4134
4.46142    -55.2483
4.48032    -56.9736
4.49923    -57.2157
4.51813    -57.8058
4.53704    -57.3767
4.55594    -58.0693
4.57485    -56.3161
4.59375    -56.0399
4.61265    -58.6884
4.63156    -55.5527
4.65046    -59.4395
4.66937    -55.7709
4.68827    -58.0141
4.70718    -57.8221
4.72608    -56.3989
4.74498    -58.7201
4.76389    -55.8856
4.78279    -57.708
4.8017    -57.5678
4.8206    -57.3796
4.83951    -56.9155
4.85841    -56.5544
4.87731    -58.0313
4.89622    -55.6441
4.91512    -59.8738
4.93403    -55.1059
4.95293    -57.6873
4.97184    -56.8094
4.99074    -58.7243
5.00965    -57.5752
5.02855    -57.5491
5.04745    -59.6599
5.06636    -56.5327
5.08526    -57.7673
5.10417    -57.6699
5.12307    -59.2849
5.14198    -57.6865
5.16088    -59.3224
5.17978    -57.7295
5.19869    -56.7791
5.21759    -60.3494
5.2365    -56.7897
5.2554    -59.4516
5.27431    -57.1228
5.29321    -61.2801
5.31211    -57.3651
5.33102    -58.6182
5.34992    -58.3705
5.36883    -56.8505
5.38773    -59.4212
5.40664    -59.0461
5.42554    -57.758
5.44444    -58.8073
5.46335    -58.2029
5.48225    -59.4164
5.50116    -57.0091
5.52006    -60.9993
5.53897    -57.0294
5.55787    -58.9774
5.57677    -59.7682
5.59568    -59.8899
5.61458    -56.6901
5.63349    -58.327
5.65239    -59.6072
5.6713    -58.9347
5.6902    -58.3016
5.7091    -58.4008
5.72801    -59.6438
5.74691    -59.1926
5.76582    -60.7016
5.78472    -58.0281
5.80363    -58.7109
5.82253    -60.5281
5.84144    -57.1121
5.86034    -60.322
5.87924    -59.472
5.89815    -61.4071
5.91705    -59.106
5.93596    -58.8756
5.95486    -60.6127
5.97377    -57.4769
5.99267    -60.334
6.01157    -59.4594
6.03048    -59.9358
6.04938    -60.4004
6.06829    -59.0791
6.08719    -60.1819
6.1061    -58.6362
6.125    -60.9692
6.1439    -59.0071
6.16281    -59.9719
6.18171    -59.6735
6.20062    -60.7104
6.21952    -59.5791
6.23843    -60.9092
6.25733    -59.8232
6.27623    -61.1528
6.29514    -59.9077
6.31404    -59.6203
6.33295    -59.6427
6.35185    -60.4497
6.37076    -62.0568
6.38966    -58.6822
6.40856    -61.3348
6.42747    -59.3857
6.44637    -59.6408
6.46528    -61.4599
6.48418    -59.6669
6.50309    -61.746
6.52199    -60.748
6.5409    -60.4115
6.5598    -61.4647
6.5787    -59.7306
6.59761    -62.2393
6.61651    -58.1072
6.63542    -61.9845
6.65432    -59.3926
6.67323    -62.109
6.69213    -60.4484
6.71103    -60.2528
6.72994    -61.4652
6.74884    -61.8053
6.76775    -60.0656
6.78665    -60.0914
6.80556    -59.5615
6.82446    -61.0917
6.84336    -61.139
6.86227    -59.9556
6.88117    -60.824
6.90008    -62.0539
6.91898    -63.2414
6.93789    -58.5277
6.95679    -61.4656
6.97569    -61.7384
6.9946    -63.2936
7.0135    -61.156
7.03241    -60.6203
7.05131    -61.9969
7.07022    -61.5048
7.08912    -62.2072
7.10802    -61.2302
7.12693    -60.6719
7.14583    -62.0871
7.16474    -61.0863
7.18364    -62.2584
7.20255    -59.6945
7.22145    -63.1286
7.24035    -61.5667
7.25926    -60.3452
7.27816    -61.5518
7.29707    -60.8756
7.31597    -62.7744
7.33488    -59.8031
7.35378    -62.1076
7.37269    -59.7409
7.39159    -63.8639
7.41049    -62.6122
7.4294    -61.8919
7.4483    -61.7252
7.46721    -61.565
7.48611    -63.5532
7.50502    -60.9973
7.52392    -63.2487
7.54282    -63.5297
7.56173    -60.7283
7.58063    -63.776
7.59954    -62.377
7.61844    -62.1214
7.63735    -61.2776
7.65625    -62.1623
7.67515    -60.5028
7.69406    -63.3356
7.71296    -62.2768
7.73187    -63.7057
7.75077    -61.5485
7.76968    -61.95
7.78858    -61.7691
7.80748    -61.353
7.82639    -64.7299
7.84529    -61.155
7.8642    -61.964
7.8831    -61.4615
7.90201    -62.4833
7.92091    -61.8357
7.93981    -63.9421
7.95872    -61.9888
7.97762    -65.0388
7.99653    -62.8118
8.01543    -62.9431
8.03434    -62.3723
8.05324    -60.8358
8.07215    -64.9973
8.09105    -62.9067
8.10995    -63.6955
8.12886    -63.1983
8.14776    -62.442
8.16667    -64.1546
8.18557    -62.5381
8.20448    -63.2549
8.22338    -61.9788
8.24228    -63.2639
8.26119    -62.4535
8.28009    -64.3604
8.299    -61.1702
8.3179    -64.0015
8.33681    -62.2064
8.35571    -63.5574
8.37461    -62.832
8.39352    -62.9381
8.41242    -62.8996
8.43133    -63.4679
8.45023    -64.3991
8.46914    -62.5363
8.48804    -65.3671
8.50694    -61.5974
8.52585    -66.602
8.54475    -62.4362
8.56366    -63.6566
8.58256    -64.005
8.60147    -63.5775
8.62037    -65.5926
8.63927    -63.0736
8.65818    -64.0143
8.67708    -63.9093
8.69599    -62.6765
8.71489    -64.4351
8.7338    -64.0933
8.7527    -66.2473
8.7716    -62.9409
8.79051    -63.0708
8.80941    -63.4753
8.82832    -64.0807
8.84722    -62.8023
8.86613    -66.0066
8.88503    -63.2639
8.90394    -63.2676
8.92284    -64.7477
8.94174    -64.1817
8.96065    -62.4721
8.97955    -65.2928
8.99846    -64.4904
9.01736    -62.8031
9.03627    -64.8449
9.05517    -65.4447
9.07407    -66.0267
9.09298    -64.5625
9.11188    -64.9343
9.13079    -64.0786
9.14969    -65.5769
9.1686    -64.8262
9.1875    -63.5251
9.2064    -66.6658
9.22531    -64.6816
9.24421    -65.9927
9.26312    -63.3745
9.28202    -65.408
9.30093    -64.9731
9.31983    -64.6156
9.33873    -65.1307
9.35764    -64.5836
9.37654    -64.3159
9.39545    -64.8729
9.41435    -64.5476
9.43326    -63.7136
9.45216    -65.0671
9.47106    -65.8546
9.48997    -65.8085
9.50887    -64.7418
9.52778    -65.3568
9.54668    -65.5561
9.56559    -66.8791
9.58449    -65.4498
9.6034    -64.1709
9.6223    -65.7571
9.6412    -64.1037
9.66011    -68.0781
9.67901    -63.9582
9.69792    -67.423
9.71682    -65.827
9.73573    -67.4005
9.75463    -61.8297
9.77353    -66.7795
9.79244    -64.915
9.81134    -64.8291
9.83025    -66.5692
9.84915    -64.8162
9.86806    -65.7189
9.88696    -65.8437
9.90586    -66.1497
9.92477    -64.5359
9.94367    -66.7182
9.96258    -63.4704
9.98148    -66.2947
10.0004    -64.2526
10.0193    -67.5
10.0382    -64.4146
10.0571    -67.9324
10.076    -65.7329
10.0949    -67.4622
10.1138    -65.3816
10.1327    -65.0556
10.1516    -65.9821
10.1705    -66.2105
10.1894    -66.3537
10.2083    -66.0613
10.2272    -66.883
10.2461    -64.5206
10.265    -67.862
10.284    -65.6026
10.3029    -66.7404
10.3218    -66.8677
10.3407    -64.2311
10.3596    -66.9641
10.3785    -66.0787
10.3974    -66.2061
10.4163    -66.3044
10.4352    -66.5986
10.4541    -66.342
10.473    -65.8064
10.4919    -65.978
10.5108    -66.1742
10.5297    -65.7706
10.5486    -69.7074
10.5675    -65.1092
10.5864    -68.6201
10.6053    -67.8562
10.6242    -67.3974
10.6431    -69.9613
10.662    -65.7635
10.6809    -66.4626
10.6998    -67.4383
10.7187    -66.8275
10.7377    -65.8395
10.7566    -69.672
10.7755    -64.7894
10.7944    -67.369
10.8133    -67.5777
10.8322    -67.1852
10.8511    -67.3155
10.87    -66.6121
10.8889    -67.3542
10.9078    -67.8787
10.9267    -68.8653
10.9456    -67.0168
10.9645    -67.4996
10.9834    -67.2422
11.0023    -67.1158
11.0212    -68.9868
11.0401    -69.228
11.059    -65.9035
11.0779    -69.9578
11.0968    -69.7078
11.1157    -67.3537
11.1346    -69.3184
11.1535    -67.1202
11.1725    -67.2766
11.1914    -67.5303
11.2103    -67.3797
11.2292    -66.2809
11.2481    -69.7228
11.267    -66.014
11.2859    -68.0151
11.3048    -68.1027
11.3237    -67.8823
11.3426    -68.1164
11.3615    -68.0664
11.3804    -68.8129
11.3993    -69.8319
11.4182    -67.2579
11.4371    -67.2114
11.456    -67.9674
11.4749    -69.876
11.4938    -68.0624
11.5127    -70.5346
11.5316    -68.0526
11.5505    -66.6627
11.5694    -71.0938
11.5883    -66.9044
11.6073    -68.3307
11.6262    -68.7588
11.6451    -67.833
11.664    -66.6361
11.6829    -69.8173
11.7018    -68.1628
11.7207    -68.7847
11.7396    -70.648
11.7585    -65.9797
11.7774    -66.663
11.7963    -71.1656
11.8152    -66.9861
11.8341    -68.7948
11.853    -67.0583
11.8719    -70.248
11.8908    -67.9475
11.9097    -68.6196
11.9286    -69.3198
11.9475    -67.6793
11.9664    -68.6865
11.9853    -69.7995
12.0042    -68.9348
12.0231    -68.7967
12.0421    -71.4616
12.061    -67.5113
12.0799    -68.2352
12.0988    -69.5918
12.1177    -69.1843
12.1366    -69.4554
12.1555    -68.3943
12.1744    -70.9956
12.1933    -65.8199
12.2122    -68.4404
12.2311    -73.0236
12.25    -66.6859
12.2689    -67.7304
12.2878    -70.3269
12.3067    -69.5372
12.3256    -70.9924
12.3445    -67.5918
12.3634    -71.7991
12.3823    -67.9608
12.4012    -71.2701
12.4201    -67.6
12.439    -69.4882
12.4579    -70.3949
12.4769    -68.8808
12.4958    -72.4469
12.5147    -69.1827
12.5336    -67.5108
12.5525    -69.5948
12.5714    -71.557
12.5903    -70.252
12.6092    -71.2751
12.6281    -66.7846
12.647    -70.4996
12.6659    -71.3328
12.6848    -65.6461
12.7037    -69.4079
12.7226    -70.7028
12.7415    -71.7532
12.7604    -69.9637
12.7793    -68.527
12.7982    -72.878
12.8171    -68.914
12.836    -72.1839
12.8549    -68.1764
12.8738    -70.9766
12.8927    -72.3216
12.9117    -70.2977
12.9306    -69.1689
12.9495    -70.6044
12.9684    -69.7838
12.9873    -71.3277
13.0062    -70.3649
13.0251    -72.4331
13.044    -68.6743
13.0629    -70.7735
13.0818    -69.1375
13.1007    -72.0552
13.1196    -70.5705
13.1385    -70.64
13.1574    -70.3687
13.1763    -72.3394
13.1952    -71.4703
13.2141    -68.737
13.233    -71.9025
13.2519    -69.6356
13.2708    -72.7088
13.2897    -67.8745
13.3086    -73.462
13.3275    -71.1521
13.3465    -68.8069
13.3654    -70.6427
13.3843    -74.5091
13.4032    -71.6384
13.4221    -71.2448
13.441    -70.4285
13.4599    -71.5872
13.4788    -72.8253
13.4977    -71.3198
13.5166    -69.7301
13.5355    -73.6452
13.5544    -70.1714
13.5733    -70.6726
13.5922    -69.5213
13.6111    -69.5511
13.63    -71.6301
13.6489    -73.3386
13.6678    -70.522
13.6867    -70.3572
13.7056    -73.0943
13.7245    -67.17
13.7434    -73.481
13.7623    -72.74
13.7812    -70.6169
13.8002    -67.9855
13.8191    -73.4268
13.838    -73.9504
13.8569    -70.8381
13.8758    -72.4097
13.8947    -72.4028
13.9136    -72.8034
13.9325    -70.6496
13.9514    -67.7087
13.9703    -71.3193
13.9892    -73.4044
14.0081    -70.7807
14.027    -72.5419
14.0459    -68.7239
14.0648    -72.5931
14.0837    -76.5918
14.1026    -70.3556
14.1215    -72.2626
14.1404    -72.4356
14.1593    -70.9065
14.1782    -70.4509
14.1971    -73.3454
14.216    -71.5806
14.235    -70.0719
14.2539    -73.8663
14.2728    -71.7549
14.2917    -71.2705
14.3106    -70.4551
14.3295    -71.9788
14.3484    -71.7333
14.3673    -70.541
14.3862    -72.0273
14.4051    -73.9442
14.424    -74.1149
14.4429    -71.9053
14.4618    -74.5585
14.4807    -69.7778
14.4996    -73.4562
14.5185    -74.6269
14.5374    -73.0645
14.5563    -70.3982
14.5752    -75.7439
14.5941    -70.3546
14.613    -72.5421
14.6319    -73.7002
14.6508    -72.0821
14.6698    -72.3076
14.6887    -70.5298
14.7076    -72.6301
14.7265    -72.3762
14.7454    -70.7918
14.7643    -72.8942
14.7832    -76.9595
14.8021    -69.4952
14.821    -71.525
14.8399    -74.9855
14.8588    -74.9974
14.8777    -71.4793
14.8966    -74.2511
14.9155    -70.6719
14.9344    -73.1307
14.9533    -76.5756
14.9722    -70.1661
14.9911    -72.6441
15.01    -72.5161
15.0289    -71.4095
15.0478    -72.775
15.0667    -72.3372
15.0856    -72.0578
15.1046    -72.6134
15.1235    -69.1944
15.1424    -74.2947
15.1613    -76.6227
15.1802    -70.6549
15.1991    -71.0367
15.218    -75.5661
15.2369    -72.584
15.2558    -71.9793
15.2747    -76.9205
15.2936    -72.3574
15.3125    -71.393
15.3314    -75.3202
15.3503    -70.6888
15.3692    -75.9213
15.3881    -72.4305
15.407    -70.34
15.4259    -72.8558
15.4448    -73.4869
15.4637    -75.6641
15.4826    -71.8322
15.5015    -71.4729
15.5204    -73.6085
15.5394    -71.262
15.5583    -71.3197
15.5772    -74.3598
15.5961    -76.8575
15.615    -73.2058
15.6339    -72.2237
15.6528    -77.1175
15.6717    -73.7362
15.6906    -72.4635
15.7095    -76.9906
15.7284    -70.1701
15.7473    -74.254
15.7662    -73.4741
15.7851    -73.3049
15.804    -72.8381
15.8229    -74.1177
15.8418    -73.0669
15.8607    -72.3958
15.8796    -72.1037
15.8985    -74.88
15.9174    -72.8706
15.9363    -71.2042
15.9552    -73.2168
15.9742    -77.56
15.9931    -72.3316
16.012    -72.6754
16.0309    -77.2933
16.0498    -72.7983
16.0687    -72.5533
16.0876    -74.9582
16.1065    -72.4726
16.1254    -71.6911
16.1443    -73.2833
16.1632    -76.2332
16.1821    -72.2816
16.201    -74.0607
16.2199    -74.9937
16.2388    -74.1298
16.2577    -72.0379
16.2766    -72.9856
16.2955    -73.2708
16.3144    -72.7645
16.3333    -73.6485
16.3522    -77.1785
16.3711    -70.9671
16.39    -73.9688
16.409    -74.3377
16.4279    -74.3205
16.4468    -71.6978
16.4657    -74.8205
16.4846    -74.6715
16.5035    -70.9685
16.5224    -74.6508
16.5413    -75.0804
16.5602    -75.313
16.5791    -73.8823
16.598    -72.7389
16.6169    -76.2123
16.6358    -71.5074
16.6547    -75.3603
16.6736    -75.8185
16.6925    -71.0919
16.7114    -73.3873
16.7303    -75.9176
16.7492    -73.4546
16.7681    -73.4001
16.787    -75.3632
16.8059    -72.4066
16.8248    -73.0337
16.8438    -74.4576
16.8627    -74.6789
16.8816    -71.6646
16.9005    -73.2398
16.9194    -75.7238
16.9383    -76.6782
16.9572    -72.9716
16.9761    -74.8491
16.995    -75.8444
17.0139    -75.1593
17.0328    -73.7557
17.0517    -76.1538
17.0706    -71.2251
17.0895    -75.2693
17.1084    -74.8014
17.1273    -73.1954
17.1462    -72.7396
17.1651    -73.0338
17.184    -75.31
17.2029    -70.3959
17.2218    -73.7116
17.2407    -72.971
17.2596    -72.3454
17.2785    -74.5601
17.2975    -73.2717
17.3164    -76.4782
17.3353    -72.6102
17.3542    -75.4051
17.3731    -73.785
17.392    -71.2533
17.4109    -77.521
17.4298    -74.6052
17.4487    -71.4889
17.4676    -72.5113
17.4865    -75.9935
17.5054    -72.5802
17.5243    -71.4984
17.5432    -73.4376
17.5621    -73.5173
17.581    -70.852
17.5999    -73.9664
17.6188    -72.1189
17.6377    -77.2987
17.6566    -71.6141
17.6755    -71.8227
17.6944    -76.037
17.7133    -71.0879
17.7323    -75.2213
17.7512    -73.5654
17.7701    -71.1207
17.789    -72.2582
17.8079    -76.304
17.8268    -70.3972
17.8457    -70.8061
17.8646    -72.7079
17.8835    -73.706
17.9024    -69.7966
17.9213    -72.8252
17.9402    -72.0386
17.9591    -71.99
17.978    -70.2775
17.9969    -72.5984
18.0158    -73.8861
18.0347    -68.4684
18.0536    -73.3968
18.0725    -70.0155
18.0914    -71.5646
18.1103    -70.5497
18.1292    -69.6996
18.1481    -65.5086
18.1671    -63.4605
18.186    -69.7609
18.2049    -66.2287
18.2238    -64.9624
18.2427    -65.102
18.2616    -66.7115
18.2805    -63.8575
18.2994    -59.9901
18.3183    -62.738
18.3372    -63.5537
18.3561    -59.3385
18.375    -60.5124
18.3939    -64.7104
18.4128    -58.5956
18.4317    -63.1063
18.4506    -61.2263
18.4695    -54.8353
18.4884    -54.7974
18.5073    -62.1601
18.5262    -55.3601
18.5451    -56.6559
18.564    -57.6729
18.5829    -54.0455
18.6019    -56.1473
18.6208    -53.5822
18.6397    -56.1727
18.6586    -52.6544
18.6775    -53.5261
18.6964    -52.7762
18.7153    -54.4588
18.7342    -54.7706
18.7531    -57.1117
18.772    -53.6339
18.7909    -47.9127
18.8098    -51.7391
18.8287    -52.4362
18.8476    -48.1277
18.8665    -49.05
18.8854    -49.251
18.9043    -46.0952
18.9232    -49.6068
18.9421    -45.2307
18.961    -46.2857
18.9799    -46.5352
18.9988    -41.5083
19.0177    -45.684
19.0367    -45.9059
19.0556    -42.8556
19.0745    -44.7695
19.0934    -43.8533
19.1123    -43.4744
19.1312    -43.3487
19.1501    -41.1297
19.169    -40.01
19.1879    -40.6581
19.2068    -40.1244
19.2257    -38.3844
19.2446    -41.2522
19.2635    -36.8711
19.2824    -37.4989
19.3013    -38.4672
19.3202    -35.361
19.3391    -38.8262
19.358    -37.3395
19.3769    -36.8474
19.3958    -36.9722
19.4147    -37.6932
19.4336    -36.2972
19.4525    -36.6236
19.4715    -32.0838
19.4904    -31.33
19.5093    -34.2263
19.5282    -33.4106
19.5471    -28.7416
19.566    -29.8946
19.5849    -30.8686
19.6038    -27.401
19.6227    -25.0583
19.6416    -29.8779
19.6605    -27.7713
19.6794    -27.5019
19.6983    -27.3319
19.7172    -27.9055
19.7361    -26.2557
19.755    -27.3709
19.7739    -25.6312
19.7928    -24.5106
19.8117    -22.4238
19.8306    -20.9588
19.8495    -24.6672
19.8684    -22.3481
19.8873    -23.2624
19.9063    -21.4426
19.9252    -20.4001
19.9441    -20.5002
19.963    -20.8189
19.9819    -20.8854
20.0008    -20.2717
20.0197    -16.7158
20.0386    -17.1288
20.0575    -19.4226
20.0764    -18.3425
20.0953    -15.6316
20.1142    -16.8832
20.1331    -14.395
20.152    -14.8439
20.1709    -14.5608
20.1898    -15.8081
20.2087    -13.8971
20.2276    -12.9087
20.2465    -15.4801
20.2654    -11.5909
20.2843    -11.3447
20.3032    -12.7952
20.3221    -11.2833
20.341    -11.7977
20.36    -10.0561
20.3789    -10.4357
20.3978    -10.6919
20.4167    -8.65288
20.4356    -7.84711
20.4545    -7.15674
20.4734    -5.67066
20.4923    -7.3837
20.5112    -6.58683
20.5301    -5.38509
20.549    -4.70063
20.5679    -4.95865
20.5868    -4.96643
20.6057    -3.08129
20.6246    -3.88656
20.6435    -3.78465
20.6624    -2.08167
20.6813    -2.71352
20.7002    -2.26403
20.7191    -1.74935
20.738    -1.83396
20.7569    -1.51254
20.7758    -0.456979
20.7948    -0.674129
20.8137    -0.242542
20.8326    -0.43506
20.8515    -0.00369956
20.8704    -0.00369894
20.8893    -0.306557
20.9082    -0.00370344
20.9271    -0.00370295
